Frio (Kw)
32140.0
19199.0
28163.0
26368.0
19346.0
60720.0
23916.0
41486.0
29539.0
64120.0
23294.0
24129.0
24548.0
28068.0
27867.0
14727.0
30409.0
29532.0
31742.0
25384.0
18249.0
30952.0
78542.0
14988.0
25613.0
5608458.0
75692.0
15048.0
10556.0
32641.0
45556.0
27993.0
36007.0
38299.0
39070.0
30355.0
32288.0
30588.0
27044.0
51562.0
28968.0
39984.0
26724.0
22348.0
30221.0
24973.0
30326.0
17689.0
29552.0
59626.0
28040.0
28004.0
30930.0
9843.0
16218.0
21500.0
26090.0
32422.0
37809.0
39760.0
60938.0
29727.0
52148.0
21560.0
61156.0
23008.0
55158.0
21941.0
60450.0
61718.0
33298.0
13856.0
28374.0
34416.0
31456.0
70416.0
39784.0
82296.0
21942.0
25331.0
44043.0
53270.0
35396.0
24696.0
26888.0
24768.0
68040.0
33766.0
28453.0
36994.0
13815.0
22642.0
31034.0
59760.0
8032.0
53085.0
43472.0
19022.0
51906.0
25259.0
22207.0
25384.0
30732.0
21092.0
21601.0
28363.0
62812.0
68706.0
35660.0
17354.0
31096.0
20767.0
37154.0
58842.0
36866.0
31548.0
11410.0
21224.0
37282.0
19718.0
55894.0
17879.0
18245.0
64066.0
26624.0
22408.0
30656.0
18601.0
21058.0
25694.0
32436.0
30848.0
46160.0
16699.0
30636.0
26058.0
40406.0
109362.0
23420.0
23301.0
14719.0
45912.0
30055.0
11020.0
33074.0
35536.0
20326.0
18032.0
28265.0
28959.0
31374.0
31674.0
26450.0
27685.0
31790.0
19425.0
24093.0
33838.0
57158.0
53432.0
18085.0
38215.0
13547.0
21952.0
63738.0
23511.0
34174.0
31263.0
43174.0
28079.0
29135.0
15428.0
31752.0
35192.0
35721.0
47632.0
81440.0
36322.0
28731.0
61600.0
26489.0
29318.0
54548.0
28149.0
28126.0
25576.0
24715.0
47180.0
39480.0
37129.0
50840.0
24875.0
48396.0
20900.0
23356.0
31395.0
26404.0
28469.0
19314.0
22576.0
24017.0
38950.0
18255.0
36868.0
85208.0
27825.0
63830.0
27652.0
47076.0
15073.0
23879.0
25795.0
26514.0
38602.0
72362.0
65252.0
55642.0
34078.0
27148.0
36032.0
32788.0
27718.0
57516.0
25525.0
38268.0
32027.0
22478.0
27842.0
16550.0
5820.0
23669.0
24606.0
21249.0
26048.0
20101.0
17287.0
67362.0
22101.0
30811.0
32093.0
28824.0
30429.0
45628.0
30191.0
52122.0
30621.0
41203.0
20710.0
19452.0
25065.0
25125.0
12016.0
54396.0
9751.0
26635.0
22698.0
55746.0
65900.0
21068.0
9481.0
52012.0
46762.0
25350.0
30685.0
20041.0
35994.0
29181.0
30194.0
24319.0
73904.0
28966.0
20548.0
74704.0
29885.0
58398.0
49242.0
21576.0
45980.0
93218.0
32363.0
61040.0
36774.0
13556.0
28778.0
21649.0
31834.0
42138.0
40434.0
45286.0
21112.0
13306.0
12653.0
23837.0
29308.0
28354.0
23630.0
46576.0
29610.0
33680.0
18209.0
19236.0
34753.0
28780.0
29425.0
29516.0
63836.0
56782.0
27874.0
56112.0
32158.0
43636.0
70420.0
30326.0
52674.0
37221.0
31908.0
52684.0
28451.0
30892.0
26230.0
58992.0
24246.0
33401.0
29389.0
22853.0
12321.0
29938.0
23025.0
47312.0
34214.0
32127.0
33802.0
34508.0
42840.0
34850.0
55386.0
64824.0
32212.0
25618.0
34978.0
22902.0
27720.0
31448.0
32729.0
31881.0
28135.0
31156.0
28220.0
32562.0
21116.0
17617.0
27645.0
19270.0
32416.0
26705.0
26836.0
